# 10 xtal spectrometer
Name: Fe K beta von Hamos (incl. valence)
Element: Fe
Line: K beta
Energy Range: 7000 7140
Xtal: Ge 6 2 0
Num Xtals: 10
Dispersive Direction: Down

Exit Aperture:
  -13.167 0 2.548
  -13.167 0 -2.548
  13.167 0 -2.548
  13.167 0 2.548

Xtals:
  15.007 -105.642 44.176
  15.007 -108.47 36.693
  30.007 -108.47 36.693
  30.007 -105.642 44.176

  15.007 -108.69 36.034
  15.007 -110.94 28.357
  30.007 -110.94 28.357
  30.007 -108.69 36.034

  15.007 -111.199 27.325
  15.007 -112.836 19.494
  30.007 -112.836 19.494
  30.007 -111.199 27.325

  15.007 -113.053 18.19
  15.007 -114.048 10.252
  30.007 -114.048 10.252
  30.007 -113.053 18.19

  15.007 -114.171 8.767
  15.007 -114.505 0.774
  30.007 -114.505 0.774
  30.007 -114.171 8.767

  15.007 -114.505 -0.774
  15.007 -114.171 -8.767
  30.007 -114.171 -8.767
  30.007 -114.505 -0.774

  15.007 -114.048 -10.252
  15.007 -113.053 -18.19
  30.007 -113.053 -18.19
  30.007 -114.048 -10.252

  15.007 -112.836 -19.494
  15.007 -111.199 -27.325
  30.007 -111.199 -27.325
  30.007 -112.836 -19.494

  15.007 -110.94 -28.357
  15.007 -108.69 -36.034
  30.007 -108.69 -36.034
  30.007 -110.94 -28.357

  15.007 -108.47 -36.693
  15.007 -105.642 -44.176
  30.007 -105.642 -44.176
  30.007 -108.47 -36.693

Sample:
  45.016 0 0

Camera:
  -2.86 99.704 41.9
  -2.86 99.704 -41.9
  -36.36 99.704 -41.9
  -36.36 99.704 41.9

Beam:
  0 0 1

Entrance Aperture:
  42.145 -35 18.354
  34.848 -35 18.354
  34.848 -35 -18.354
  42.145 -35 -18.354

  42.145 -35 18.354
  34.848 -35 18.354
  34.848 -35 -18.354
  42.145 -35 -18.354

  42.145 -35 18.354
  34.848 -35 18.354
  34.848 -35 -18.354
  42.145 -35 -18.354

  42.145 -35 18.354
  34.848 -35 18.354
  34.848 -35 -18.354
  42.145 -35 -18.354

  42.145 -35 18.354
  34.848 -35 18.354
  34.848 -35 -18.354
  42.145 -35 -18.354

  42.145 -35 18.354
  34.848 -35 18.354
  34.848 -35 -18.354
  42.145 -35 -18.354

  42.145 -35 18.354
  34.848 -35 18.354
  34.848 -35 -18.354
  42.145 -35 -18.354

  42.145 -35 18.354
  34.848 -35 18.354
  34.848 -35 -18.354
  42.145 -35 -18.354

  42.145 -35 18.354
  34.848 -35 18.354
  34.848 -35 -18.354
  42.145 -35 -18.354

  42.145 -35 18.354
  34.848 -35 18.354
  34.848 -35 -18.354
  42.145 -35 -18.354
